# Ks from Ric - Feb 2018 
# Wavelength(micron)  Throughput
     0.780000  0.000100000
      1.89400  0.000100000
      1.89500  0.000100000
      1.89600  0.000100196
      1.89700  0.000100454
      1.89800  0.000100712
      1.89900  0.000100969
      1.90000  0.000101227
      1.90100  0.000101485
      1.90200  0.000101742
      1.90300  0.000102000
      1.90400  0.000102258
      1.90500  0.000102516
      1.90600  0.000102773
      1.90700  0.000103031
      1.90800  0.000103289
      1.90900  0.000103546
      1.91000  0.000103804
      1.91100  0.000104062
      1.91200  0.000104319
      1.91300  0.000104577
      1.91400  0.000104835
      1.91500  0.000105092
      1.91600  0.000105350
      1.91700  0.000105608
      1.91800  0.000105866
      1.91900  0.000106123
      1.92000  0.000112065
      1.92100  0.000122155
      1.92200  0.000132245
      1.92300  0.000142335
      1.92400  0.000159278
      1.92500  0.000189802
      1.92600  0.000220327
      1.92700  0.000250852
      1.92800  0.000281377
      1.92900  0.000311901
      1.93000  0.000342426
      1.93100  0.000372951
      1.93200  0.000403475
      1.93300  0.000434000
      1.93400  0.000464525
      1.93500  0.000495050
      1.93600  0.000529470
      1.93700  0.000702454
      1.93800  0.000875439
      1.93900   0.00104842
      1.94000   0.00122141
      1.94100   0.00139439
      1.94200   0.00156738
      1.94300   0.00174036
      1.94400   0.00191335
      1.94500   0.00208633
      1.94600   0.00225931
      1.94700   0.00243230
      1.94800   0.00273684
      1.94900   0.00377545
      1.95000   0.00481406
      1.95100   0.00585267
      1.95200   0.00689128
      1.95300   0.00792989
      1.95400   0.00896850
      1.95500    0.0100071
      1.95600    0.0110457
      1.95700    0.0147244
      1.95800    0.0214786
      1.95900    0.0282328
      1.96000    0.0349870
      1.96100    0.0417412
      1.96200    0.0484954
      1.96300    0.0556095
      1.96400    0.0735057
      1.96500     0.101068
      1.96600     0.128631
      1.96700     0.187416
      1.96800     0.279336
      1.96900     0.402423
      1.97000     0.580067
      1.97100     0.833265
      1.97200     0.937971
      1.97300     0.940226
      1.97400     0.942482
      1.97500     0.944738
      1.97600     0.946993
      1.97700     0.949249
      1.97800     0.951504
      1.97900     0.953760
      1.98000     0.956015
      1.98100     0.957982
      1.98200     0.958725
      1.98300     0.959468
      1.98400     0.960211
      1.98500     0.960954
      1.98600     0.961697
      1.98700     0.962440
      1.98800     0.963183
      1.98900     0.963926
      1.99000     0.964583
      1.99100     0.965066
      1.99200     0.965548
      1.99300     0.966031
      1.99400     0.966514
      1.99500     0.966996
      1.99600     0.967479
      1.99700     0.967961
      1.99800     0.968444
      1.99900     0.968768
      2.00000     0.968913
      2.00100     0.969058
      2.00200     0.969203
      2.00300     0.969348
      2.00400     0.969492
      2.00500     0.969637
      2.00600     0.969782
      2.00700     0.969927
      2.00800     0.969853
      2.00900     0.969636
      2.01000     0.969420
      2.01100     0.969204
      2.01200     0.968988
      2.01300     0.968772
      2.01400     0.968556
      2.01500     0.968340
      2.01600     0.968124
      2.01700     0.967664
      2.01800     0.967122
      2.01900     0.966580
      2.02000     0.966037
      2.02100     0.965495
      2.02200     0.964952
      2.02300     0.964410
      2.02400     0.963867
      2.02500     0.963325
      2.02600     0.962571
      2.02700     0.961789
      2.02800     0.961007
      2.02900     0.960225
      2.03000     0.959443
      2.03100     0.958661
      2.03200     0.957879
      2.03300     0.957097
      2.03400     0.956313
      2.03500     0.955416
      2.03600     0.954520
      2.03700     0.953624
      2.03800     0.952727
      2.03900     0.951831
      2.04000     0.950935
      2.04100     0.950038
      2.04200     0.949142
      2.04300     0.948250
      2.04400     0.947383
      2.04500     0.946516
      2.04600     0.945649
      2.04700     0.944781
      2.04800     0.943914
      2.04900     0.943047
      2.05000     0.942180
      2.05100     0.941312
      2.05200     0.940495
      2.05300     0.939796
      2.05400     0.939097
      2.05500     0.938397
      2.05600     0.937698
      2.05700     0.936998
      2.05800     0.936299
      2.05900     0.935600
      2.06000     0.934900
      2.06100     0.934324
      2.06200     0.933904
      2.06300     0.933485
      2.06400     0.933065
      2.06500     0.932645
      2.06600     0.932226
      2.06700     0.931806
      2.06800     0.931387
      2.06900     0.930967
      2.07000     0.930748
      2.07100     0.930675
      2.07200     0.930602
      2.07300     0.930530
      2.07400     0.930457
      2.07500     0.930384
      2.07600     0.930312
      2.07700     0.930239
      2.07800     0.930166
      2.07900     0.930351
      2.08000     0.930636
      2.08100     0.930922
      2.08200     0.931208
      2.08300     0.931494
      2.08400     0.931780
      2.08500     0.932066
      2.08600     0.932352
      2.08700     0.932638
      2.08800     0.933191
      2.08900     0.933790
      2.09000     0.934389
      2.09100     0.934987
      2.09200     0.935586
      2.09300     0.936185
      2.09400     0.936784
      2.09500     0.937382
      2.09600     0.937981
      2.09700     0.938795
      2.09800     0.939611
      2.09900     0.940427
      2.10000     0.941243
      2.10100     0.942058
      2.10200     0.942874
      2.10300     0.943690
      2.10400     0.944505
      2.10500     0.945333
      2.10600     0.946235
      2.10700     0.947137
      2.10800     0.948039
      2.10900     0.948941
      2.11000     0.949844
      2.11100     0.950746
      2.11200     0.951648
      2.11300     0.952550
      2.11400     0.953437
      2.11500     0.954281
      2.11600     0.955125
      2.11700     0.955969
      2.11800     0.956814
      2.11900     0.957658
      2.12000     0.958502
      2.12100     0.959346
      2.12200     0.960191
      2.12300     0.960956
      2.12400     0.961607
      2.12500     0.962258
      2.12600     0.962909
      2.12700     0.963560
      2.12800     0.964212
      2.12900     0.964863
      2.13000     0.965514
      2.13100     0.966165
      2.13200     0.966653
      2.13300     0.967007
      2.13400     0.967361
      2.13500     0.967715
      2.13600     0.968069
      2.13700     0.968423
      2.13800     0.968777
      2.13900     0.969131
      2.14000     0.969485
      2.14100     0.969596
      2.14200     0.969596
      2.14300     0.969596
      2.14400     0.969596
      2.14500     0.969596
      2.14600     0.969596
      2.14700     0.969596
      2.14800     0.969596
      2.14900     0.969596
      2.15000     0.969304
      2.15100     0.968950
      2.15200     0.968596
      2.15300     0.968242
      2.15400     0.967888
      2.15500     0.967534
      2.15600     0.967180
      2.15700     0.966826
      2.15800     0.966473
      2.15900     0.965832
      2.16000     0.965181
      2.16100     0.964530
      2.16200     0.963879
      2.16300     0.963228
      2.16400     0.962576
      2.16500     0.961925
      2.16600     0.961274
      2.16700     0.960603
      2.16800     0.959759
      2.16900     0.958915
      2.17000     0.958070
      2.17100     0.957226
      2.17200     0.956382
      2.17300     0.955538
      2.17400     0.954693
      2.17500     0.953849
      2.17600     0.952991
      2.17700     0.952089
      2.17800     0.951187
      2.17900     0.950284
      2.18000     0.949382
      2.18100     0.948480
      2.18200     0.947578
      2.18300     0.946676
      2.18400     0.945774
      2.18500     0.944904
      2.18600     0.944088
      2.18700     0.943273
      2.18800     0.942457
      2.18900     0.941641
      2.19000     0.940826
      2.19100     0.940010
      2.19200     0.939194
      2.19300     0.938378
      2.19400     0.937675
      2.19500     0.937076
      2.19600     0.936478
      2.19700     0.935879
      2.19800     0.935280
      2.19900     0.934681
      2.20000     0.934083
      2.20100     0.933484
      2.20200     0.932885
      2.20300     0.932492
      2.20400     0.932206
      2.20500     0.931920
      2.20600     0.931634
      2.20700     0.931348
      2.20800     0.931062
      2.20900     0.930776
      2.21000     0.930490
      2.21100     0.930204
      2.21200     0.930204
      2.21300     0.930276
      2.21400     0.930349
      2.21500     0.930422
      2.21600     0.930494
      2.21700     0.930567
      2.21800     0.930640
      2.21900     0.930712
      2.22000     0.930785
      2.22100     0.931181
      2.22200     0.931601
      2.22300     0.932021
      2.22400     0.932440
      2.22500     0.932860
      2.22600     0.933279
      2.22700     0.933699
      2.22800     0.934119
      2.22900     0.934558
      2.23000     0.935258
      2.23100     0.935957
      2.23200     0.936657
      2.23300     0.937356
      2.23400     0.938055
      2.23500     0.938755
      2.23600     0.939454
      2.23700     0.940154
      2.23800     0.940888
      2.23900     0.941756
      2.24000     0.942623
      2.24100     0.943490
      2.24200     0.944357
      2.24300     0.945225
      2.24400     0.946092
      2.24500     0.946959
      2.24600     0.947826
      2.24700     0.948704
      2.24800     0.949600
      2.24900     0.950496
      2.25000     0.951393
      2.25100     0.952289
      2.25200     0.953185
      2.25300     0.954082
      2.25400     0.954978
      2.25500     0.955874
      2.25600     0.956715
      2.25700     0.957497
      2.25800     0.958279
      2.25900     0.959061
      2.26000     0.959843
      2.26100     0.960625
      2.26200     0.961407
      2.26300     0.962189
      2.26400     0.962971
      2.26500     0.963602
      2.26600     0.964145
      2.26700     0.964687
      2.26800     0.965230
      2.26900     0.965772
      2.27000     0.966314
      2.27100     0.966857
      2.27200     0.967399
      2.27300     0.967942
      2.27400     0.968234
      2.27500     0.968450
      2.27600     0.968666
      2.27700     0.968883
      2.27800     0.969099
      2.27900     0.969315
      2.28000     0.969531
      2.28100     0.969747
      2.28200     0.969963
      2.28300     0.969853
      2.28400     0.969708
      2.28500     0.969563
      2.28600     0.969418
      2.28700     0.969274
      2.28800     0.969129
      2.28900     0.968984
      2.29000     0.968839
      2.29100     0.968680
      2.29200     0.968197
      2.29300     0.967715
      2.29400     0.967232
      2.29500     0.966749
      2.29600     0.966267
      2.29700     0.965784
      2.29800     0.965302
      2.29900     0.964819
      2.30000     0.964289
      2.30100     0.963546
      2.30200     0.962803
      2.30300     0.962060
      2.30400     0.961317
      2.30500     0.960574
      2.30600     0.959831
      2.30700     0.959088
      2.30800     0.958345
      2.30900     0.957181
      2.31000     0.955122
      2.31100     0.953063
      2.31200     0.951004
      2.31300     0.948945
      2.31400     0.946886
      2.31500     0.944827
      2.31600     0.942768
      2.31700     0.940708
      2.31800     0.904134
      2.31900     0.756990
      2.32000     0.600925
      2.32100     0.422173
      2.32200     0.290087
      2.32300     0.212276
      2.32400     0.145304
      2.32500     0.120547
      2.32600    0.0957911
      2.32700    0.0800827
      2.32800    0.0660935
      2.32900    0.0551812
      2.33000    0.0495494
      2.33100    0.0439176
      2.33200    0.0382857
      2.33300    0.0326539
      2.33400    0.0270221
      2.33500    0.0213903
      2.33600    0.0157585
      2.33700    0.0122041
      2.33800    0.0112019
      2.33900    0.0101996
      2.34000   0.00919741
      2.34100   0.00819517
      2.34200   0.00719293
      2.34300   0.00619069
      2.34400   0.00518846
      2.34500   0.00418622
      2.34600   0.00318398
      2.34700   0.00266935
      2.34800   0.00253851
      2.34900   0.00240766
      2.35000   0.00227682
      2.35100   0.00214597
      2.35200   0.00201513
      2.35300   0.00188429
      2.35400   0.00175344
      2.35500   0.00162260
      2.35600   0.00149176
      2.35700   0.00136091
      2.35800   0.00123007
      2.35900   0.00109923
      2.36000  0.000968383
      2.36100  0.000837540
      2.36200  0.000706696
      2.36300  0.000575853
      2.36400  0.000547711
      2.36500  0.000520175
      2.36600  0.000492639
      2.36700  0.000465104
      2.36800  0.000437568
      2.36900  0.000410032
      2.37000  0.000382496
      2.37100  0.000354960
      2.37200  0.000327424
      2.37300  0.000299888
      2.37400  0.000272352
      2.37500  0.000247390
      2.37600  0.000237024
      2.37700  0.000226658
      2.37800  0.000216292
      2.37900  0.000205926
      2.38000  0.000195560
      2.38100  0.000185194
      2.38200  0.000174828
      2.38300  0.000164462
      2.38400  0.000154095
      2.38500  0.000143729
      2.38600  0.000138232
      2.38700  0.000137219
      2.38800  0.000136206
      2.38900  0.000135194
      2.39000  0.000134181
      2.39100  0.000133168
      2.39200  0.000132155
      2.39300  0.000131143
      2.39400  0.000130130
      2.39500  0.000129117
      2.39600  0.000128104
      2.39700  0.000127092
      2.39800  0.000126079
      2.39900  0.000125066
      2.40000  0.000124053
      2.40100  0.000123041
      2.40200  0.000122028
      2.40300  0.000121015
      2.40400  0.000120002
      2.40500  0.000118990
      2.40600  0.000117977
      2.40700  0.000116964
      2.40800  0.000115951
      2.40900  0.000114939
      2.41000  0.000113926
      2.41100  0.000112913
      2.41200  0.000111900
      2.41300  0.000110888
      2.41400  0.000109875
      2.41500  0.000108862
      2.41600  0.000107849
      2.41700  0.000106837
      2.41800  0.000105824
      2.41900  0.000104811
      2.42000  0.000103798
      2.42100  0.000102786
      2.42200  0.000101773
      2.42300  0.000100760
      2.42400  0.000100000
      2.42500  0.000100000
      2.42600  0.000100000
      2.50000  0.000100000