# H from Ric - Feb 2018 
# Wavelength(micron)  Throughput
     0.780000  0.000100000
      1.43100  0.000100000
      1.43200  0.000100000
      1.43300  0.000100000
      1.43400  0.000100186
      1.43500  0.000100527
      1.43600  0.000100867
      1.43700  0.000101208
      1.43800  0.000101549
      1.43900  0.000101889
      1.44000  0.000102230
      1.44100  0.000102571
      1.44200  0.000102912
      1.44300  0.000103252
      1.44400  0.000103593
      1.44500  0.000103934
      1.44600  0.000104274
      1.44700  0.000104615
      1.44800  0.000104956
      1.44900  0.000105297
      1.45000  0.000105637
      1.45100  0.000105978
      1.45200  0.000109627
      1.45300  0.000122968
      1.45400  0.000136309
      1.45500  0.000150879
      1.45600  0.000191238
      1.45700  0.000231596
      1.45800  0.000271954
      1.45900  0.000312312
      1.46000  0.000352670
      1.46100  0.000393029
      1.46200  0.000433387
      1.46300  0.000473745
      1.46400  0.000514103
      1.46500  0.000693175
      1.46600  0.000921888
      1.46700   0.00115060
      1.46800   0.00137931
      1.46900   0.00160803
      1.47000   0.00183674
      1.47100   0.00206545
      1.47200   0.00229416
      1.47300   0.00252288
      1.47400   0.00361523
      1.47500   0.00498839
      1.47600   0.00636154
      1.47700   0.00773470
      1.47800   0.00910786
      1.47900    0.0104810
      1.48000    0.0132278
      1.48100    0.0221582
      1.48200    0.0310887
      1.48300    0.0400191
      1.48400    0.0489495
      1.48500    0.0595924
      1.48600    0.0931171
      1.48700     0.129557
      1.48800     0.212401
      1.48900     0.357468
      1.49000     0.580055
      1.49100     0.879729
      1.49200     0.939285
      1.49300     0.942005
      1.49400     0.944724
      1.49500     0.947444
      1.49600     0.950163
      1.49700     0.952883
      1.49800     0.955602
      1.49900     0.957998
      1.50000     0.958894
      1.50100     0.959790
      1.50200     0.960686
      1.50300     0.961582
      1.50400     0.962478
      1.50500     0.963374
      1.50600     0.964270
      1.50700     0.964906
      1.50800     0.965487
      1.50900     0.966069
      1.51000     0.966651
      1.51100     0.967233
      1.51200     0.967815
      1.51300     0.968397
      1.51400     0.968784
      1.51500     0.968958
      1.51600     0.969133
      1.51700     0.969308
      1.51800     0.969482
      1.51900     0.969657
      1.52000     0.969832
      1.52100     0.969950
      1.52200     0.969690
      1.52300     0.969429
      1.52400     0.969169
      1.52500     0.968908
      1.52600     0.968648
      1.52700     0.968387
      1.52800     0.968127
      1.52900     0.967560
      1.53000     0.966906
      1.53100     0.966252
      1.53200     0.965598
      1.53300     0.964944
      1.53400     0.964290
      1.53500     0.963636
      1.53600     0.962858
      1.53700     0.961916
      1.53800     0.960973
      1.53900     0.960030
      1.54000     0.959087
      1.54100     0.958145
      1.54200     0.957202
      1.54300     0.956248
      1.54400     0.955167
      1.54500     0.954087
      1.54600     0.953006
      1.54700     0.951925
      1.54800     0.950845
      1.54900     0.949764
      1.55000     0.948683
      1.55100     0.947628
      1.55200     0.946583
      1.55300     0.945537
      1.55400     0.944491
      1.55500     0.943446
      1.55600     0.942400
      1.55700     0.941355
      1.55800     0.940386
      1.55900     0.939542
      1.56000     0.938699
      1.56100     0.937856
      1.56200     0.937013
      1.56300     0.936170
      1.56400     0.935326
      1.56500     0.934493
      1.56600     0.933987
      1.56700     0.933481
      1.56800     0.932975
      1.56900     0.932469
      1.57000     0.931963
      1.57100     0.931458
      1.57200     0.930952
      1.57300     0.930730
      1.57400     0.930642
      1.57500     0.930555
      1.57600     0.930467
      1.57700     0.930380
      1.57800     0.930292
      1.57900     0.930205
      1.58000     0.930260
      1.58100     0.930604
      1.58200     0.930949
      1.58300     0.931294
      1.58400     0.931638
      1.58500     0.931983
      1.58600     0.932328
      1.58700     0.932673
      1.58800     0.933387
      1.58900     0.934109
      1.59000     0.934831
      1.59100     0.935553
      1.59200     0.936275
      1.59300     0.936997
      1.59400     0.937718
      1.59500     0.938605
      1.59600     0.939589
      1.59700     0.940572
      1.59800     0.941556
      1.59900     0.942539
      1.60000     0.943523
      1.60100     0.944506
      1.60200     0.945519
      1.60300     0.946607
      1.60400     0.947694
      1.60500     0.948782
      1.60600     0.949870
      1.60700     0.950958
      1.60800     0.952045
      1.60900     0.953133
      1.61000     0.954156
      1.61100     0.955174
      1.61200     0.956191
      1.61300     0.957209
      1.61400     0.958227
      1.61500     0.959245
      1.61600     0.960263
      1.61700     0.961146
      1.61800     0.961931
      1.61900     0.962716
      1.62000     0.963501
      1.62100     0.964286
      1.62200     0.965071
      1.62300     0.965856
      1.62400     0.966558
      1.62500     0.966985
      1.62600     0.967412
      1.62700     0.967839
      1.62800     0.968265
      1.62900     0.968692
      1.63000     0.969119
      1.63100     0.969545
      1.63200     0.969596
      1.63300     0.969596
      1.63400     0.969596
      1.63500     0.969596
      1.63600     0.969596
      1.63700     0.969596
      1.63800     0.969596
      1.63900     0.969369
      1.64000     0.968942
      1.64100     0.968515
      1.64200     0.968089
      1.64300     0.967662
      1.64400     0.967235
      1.64500     0.966809
      1.64600     0.966317
      1.64700     0.965532
      1.64800     0.964746
      1.64900     0.963961
      1.65000     0.963176
      1.65100     0.962391
      1.65200     0.961606
      1.65300     0.960821
      1.65400     0.959842
      1.65500     0.958824
      1.65600     0.957806
      1.65700     0.956789
      1.65800     0.955771
      1.65900     0.954753
      1.66000     0.953735
      1.66100     0.952683
      1.66200     0.951596
      1.66300     0.950508
      1.66400     0.949420
      1.66500     0.948332
      1.66600     0.947245
      1.66700     0.946157
      1.66800     0.945083
      1.66900     0.944100
      1.67000     0.943116
      1.67100     0.942133
      1.67200     0.941149
      1.67300     0.940166
      1.67400     0.939182
      1.67500     0.938199
      1.67600     0.937420
      1.67700     0.936698
      1.67800     0.935976
      1.67900     0.935254
      1.68000     0.934532
      1.68100     0.933810
      1.68200     0.933089
      1.68300     0.932530
      1.68400     0.932185
      1.68500     0.931841
      1.68600     0.931496
      1.68700     0.931151
      1.68800     0.930806
      1.68900     0.930462
      1.69000     0.930153
      1.69100     0.930241
      1.69200     0.930328
      1.69300     0.930416
      1.69400     0.930503
      1.69500     0.930591
      1.69600     0.930679
      1.69700     0.930766
      1.69800     0.931161
      1.69900     0.931667
      1.70000     0.932173
      1.70100     0.932679
      1.70200     0.933184
      1.70300     0.933690
      1.70400     0.934196
      1.70500     0.934832
      1.70600     0.935675
      1.70700     0.936518
      1.70800     0.937361
      1.70900     0.938205
      1.71000     0.939048
      1.71100     0.939891
      1.71200     0.940741
      1.71300     0.941787
      1.71400     0.942833
      1.71500     0.943878
      1.71600     0.944924
      1.71700     0.945969
      1.71800     0.947015
      1.71900     0.948061
      1.72000     0.949130
      1.72100     0.950211
      1.72200     0.951292
      1.72300     0.952372
      1.72400     0.953453
      1.72500     0.954534
      1.72600     0.955614
      1.72700     0.956649
      1.72800     0.957592
      1.72900     0.958534
      1.73000     0.959477
      1.73100     0.960420
      1.73200     0.961363
      1.73300     0.962305
      1.73400     0.963248
      1.73500     0.963907
      1.73600     0.964560
      1.73700     0.965214
      1.73800     0.965868
      1.73900     0.966522
      1.74000     0.967176
      1.74100     0.967830
      1.74200     0.968234
      1.74300     0.968495
      1.74400     0.968755
      1.74500     0.969016
      1.74600     0.969277
      1.74700     0.969537
      1.74800     0.969798
      1.74900     0.969934
      1.75000     0.969759
      1.75100     0.969585
      1.75200     0.969410
      1.75300     0.969235
      1.75400     0.969061
      1.75500     0.968886
      1.75600     0.968712
      1.75700     0.968156
      1.75800     0.967574
      1.75900     0.966992
      1.76000     0.966411
      1.76100     0.965829
      1.76200     0.965247
      1.76300     0.964665
      1.76400     0.963899
      1.76500     0.963003
      1.76600     0.962107
      1.76700     0.961212
      1.76800     0.960316
      1.76900     0.959420
      1.77000     0.958524
      1.77100     0.957253
      1.77200     0.954771
      1.77300     0.952288
      1.77400     0.949806
      1.77500     0.947323
      1.77600     0.944840
      1.77700     0.942358
      1.77800     0.939875
      1.77900     0.808055
      1.78000     0.600914
      1.78100     0.367057
      1.78200     0.242872
      1.78300     0.150537
      1.78400     0.115261
      1.78500    0.0868418
      1.78600    0.0686096
      1.78700    0.0544858
      1.78800    0.0471454
      1.78900    0.0398050
      1.79000    0.0324646
      1.79100    0.0251241
      1.79200    0.0177837
      1.79300    0.0122605
      1.79400    0.0109542
      1.79500   0.00964786
      1.79600   0.00834156
      1.79700   0.00703525
      1.79800   0.00572895
      1.79900   0.00442264
      1.80000   0.00311634
      1.80100   0.00262082
      1.80200   0.00245029
      1.80300   0.00227975
      1.80400   0.00210921
      1.80500   0.00193868
      1.80600   0.00176814
      1.80700   0.00159760
      1.80800   0.00142706
      1.80900   0.00125653
      1.81000   0.00108599
      1.81100  0.000915452
      1.81200  0.000744915
      1.81300  0.000574937
      1.81400  0.000539048
      1.81500  0.000503159
      1.81600  0.000467270
      1.81700  0.000431381
      1.81800  0.000395492
      1.81900  0.000359603
      1.82000  0.000323714
      1.82100  0.000287825
      1.82200  0.000251936
      1.82300  0.000236559
      1.82400  0.000223048
      1.82500  0.000209538
      1.82600  0.000196027
      1.82700  0.000182516
      1.82800  0.000169005
      1.82900  0.000155494
      1.83000  0.000141983
      1.83100  0.000137754
      1.83200  0.000136434
      1.83300  0.000135114
      1.83400  0.000133794
      1.83500  0.000132474
      1.83600  0.000131154
      1.83700  0.000129834
      1.83800  0.000128514
      1.83900  0.000127194
      1.84000  0.000125874
      1.84100  0.000124554
      1.84200  0.000123234
      1.84300  0.000121914
      1.84400  0.000120594
      1.84500  0.000119274
      1.84600  0.000117954
      1.84700  0.000116634
      1.84800  0.000115314
      1.84900  0.000113994
      1.85000  0.000112674
      1.85100  0.000111354
      1.85200  0.000110034
      1.85300  0.000108714
      1.85400  0.000107394
      1.85500  0.000106074
      1.85600  0.000104754
      1.85700  0.000103434
      1.85800  0.000102114
      1.85900  0.000100794
      1.86000  0.000100000
      1.86100  0.000100000
      1.86200  0.000100000
      2.50000  0.000100000